subject,split,channel,mean,std,median,mad_sigma,iqr_sigma,std_over_mad_sigma
1,train,AF3,0.005368380816915189,82.70841033558342,-0.8834381699562073,17.402883188688755,17.462028230535623,4.752569412713228
1,train,F7,-0.015678881459802438,65.50072288162129,3.5778398513793945,30.767749196434018,30.81979567780152,2.1288760014077606
1,train,F3,0.0071644235471647,19.72768638120982,-0.43031448125839233,13.596419837093352,13.594252697355753,1.450947132964321
1,train,FC5,0.005623047187068505,30.7356296237752,-0.6547911763191223,13.926692328751086,13.97262527997446,2.2069583285273526
1,train,T7,-0.7531935275815964,1436.2286202506232,3.060641050338745,88.98752293810844,339.82848926682755,16.13966287441816
1,train,P7,0.009314465976840791,19.49154677126233,-0.46051377058029175,11.318536376988888,11.353057256179708,1.7220907476066916
1,train,O1,0.016810126550936003,21.685583064276265,-0.5919264256954193,14.238634616661072,14.26823144492792,1.5230100110091516
1,train,O2,0.014922794473625805,20.35995875481444,-0.5440801084041595,13.650442577594518,13.690447789638284,1.491523709878297
1,train,P8,0.01153950752714112,21.195354894309183,-0.2864116281270981,13.303027705478668,13.354768215770452,1.5932730024744794
1,train,T8,0.018361026656002942,20.693588436941262,-0.25620001554489136,13.799193993473052,13.80444226925951,1.4996229813661017
1,train,FC6,0.01203696215054606,27.009040263509515,-0.4429273307323456,20.014542916488647,20.037943915670407,1.3494707511535808
1,train,F4,0.010859472080919414,29.6803849440542,0.11947675049304962,23.989024895283578,23.989267398729602,1.2372484948268818
1,train,F8,0.018041764385104887,41.769384262075235,-0.2919778823852539,18.75309093132019,18.761983529296604,2.2273333188138458
1,train,AF4,0.007221374662761362,27.079708407119366,-0.9657554030418396,18.156379464662074,18.16329415238637,1.491470722994353
2,train,AF3,0.0013435081076922132,19.51528926089063,-0.5689859092235565,13.384328715258835,13.389745758938913,1.458070081515719
2,train,F7,0.00027529895434376205,30.89453452447437,-0.48110461235046387,13.930694333982467,13.93231009447283,2.2177311326909526
2,train,F3,0.00945270930484458,15.321456551171881,-0.07352646440267563,11.683199938488006,11.683756373739843,1.3114092570391056
2,train,FC5,0.008708374078691048,16.422473811663217,-0.11751657724380493,10.46715777093172,10.472636827280823,1.5689525438577
2,train,T7,-0.006086123170734014,50.766687338329774,0.05799562856554985,16.346771283327787,16.339622310924035,3.1056094477878426
2,train,P7,2.6951386376320112e-05,8.655995697592617,0.06712375581264496,6.35158007697165,6.350938261129664,1.3628098193984641
2,train,O1,0.00047575069423505984,14.321383307448205,0.1930832490324974,10.652403911890088,10.634859196780964,1.3444273636172248
2,train,O2,0.004425751060334367,16.096342353498443,0.0624641552567482,12.330562206374108,12.322043206092603,1.3054021450196058
2,train,P8,0.0022804873453771287,16.63960732958179,-0.02008545584976673,12.797694283103942,12.79933157454958,1.3002035336591924
2,train,T8,0.0007335531465058293,18.89524309473325,0.018109019845724106,13.657135129829495,13.656092715139652,1.3835436872454194
2,train,FC6,-0.0007691671913167627,23.983589785028457,-0.24675774574279785,17.43672627711296,17.46018468405778,1.375464029420979
2,train,F4,-0.0008101905219531103,14.611985360000894,-0.19420835375785828,11.588170938187837,11.585931852183755,1.2609397495033778
2,train,F8,0.007019823941004074,32.31246986528221,-0.6081926226615906,19.76114441460371,19.7598822829103,1.6351517496832284
2,train,AF4,0.019513216603083132,20.244549226390625,-0.5460241734981537,14.61960316595435,14.613999005509271,1.3847536760461092
3,train,AF3,0.00016963756508946948,33.249679144521146,-2.015014171600342,22.083934956264496,22.204387090752263,1.5056048304058824
3,train,F7,-0.009802587627110075,25.063867231450658,-0.9738690853118896,18.626905506849287,18.666039580676713,1.3455733279064759
3,train,F3,-0.002410605158201105,15.630500348355211,-0.4998071938753128,14.691918442556261,14.710518940896613,1.0638842306039678
3,train,FC5,0.0008441037383863506,13.976721157338181,-0.32440929114818573,12.748312086251378,12.738436040743975,1.0963585659635364
3,train,T7,-0.001580189883257999,8.883355739475629,-0.11892922222614288,7.86506372551918,7.863872311042803,1.1294702814234643
3,train,P7,0.0006078303386670012,10.703324709291895,0.1467980593442917,8.675533035591243,8.68667400351624,1.2337368396133894
3,train,O1,0.0024469764672971905,14.705828606719416,0.24633336067199707,11.99681003050804,11.997717057801424,1.2258115756873957
3,train,O2,0.002295117512738437,18.780222582453334,-0.014836558606475592,16.41741509399414,16.40855744646778,1.1439207984284665
3,train,P8,0.00019465062465127557,17.603999659665412,-0.18969909846782684,16.10571261975467,16.11645827919046,1.0930282984233184
3,train,T8,-0.0014037103066186774,19.175595621309387,-0.295969158411026,17.887892164993286,17.8905450652669,1.0719874339826436
3,train,FC6,0.001762172326947762,22.438169493452733,-0.6288649439811707,18.7975426430583,18.79045749435255,1.1936756798229087
3,train,F4,-0.0008890635703935275,18.12123367864853,-0.42258669435977936,16.612366420188547,16.596332313927835,1.0908279543260193
3,train,F8,0.007849745380111003,28.07061415881661,-1.3242824077606201,23.404397850465774,23.459911346435547,1.1993734826319393
3,train,AF4,0.00496914516741325,20.558688550994646,-1.0388137102127075,18.108811301922795,18.116175465622685,1.135286475088054
4,train,AF3,-0.00960630265348687,44.65848111800591,-0.3381407856941223,31.08642500152588,31.086759447079398,1.436591088097581
4,train,F7,-0.005954246410374954,23.306647367832632,-1.1940160989761353,14.925190027070045,14.993549895516319,1.5615645312093855
4,train,F3,-0.006911804978375588,21.55353782774451,0.016374804079532623,11.378694028379023,11.378585629502078,1.8942013709120682
4,train,FC5,-0.023652391712015268,54.04889560763404,-0.053262826055288315,11.717988319158554,11.715651442158038,4.612472220958416
4,train,T7,0.03817812853797145,46.571612122317674,0.23464668542146683,13.670682321166991,13.664154939248528,3.406677957120586
4,train,P7,-0.011699886648850803,24.45265100675919,-0.03213563933968544,9.642820299194007,9.642504603002052,2.5358401637748096
4,train,O1,-0.0044931170961250684,22.37369959097738,-0.0331597737967968,10.489340281391144,10.491489392019714,2.132993972048934
4,train,O2,-0.001651696718211211,22.99630836996995,0.13457264006137848,13.298254121026396,13.308793549364456,1.7292727421721905
4,train,P8,0.0037395587023454297,30.86214728160791,0.09374288097023964,14.572613908555358,14.559794568061122,2.1178182222675384
4,train,T8,0.0013745736372883172,25.11508349141327,0.10355684533715248,14.172225737571715,14.175113171802971,1.772134028660802
4,train,FC6,-0.00200085095519853,38.327468069695335,0.058689236640930176,17.50455773398876,17.500352470675075,2.1895707764883734
4,train,F4,-0.00691397984905707,24.32688263933836,-0.2038593292236328,15.91283811750412,15.926549132441131,1.5287582554226322
4,train,F8,-0.0032106496670578693,46.52000099116547,-0.31356221437454224,21.12702198675871,21.130805372573253,2.2019194669424644
4,train,AF4,-0.0032645420021478115,25.606556855200655,-0.3016299903392792,14.704615223246812,14.712606561546242,1.7413959132176917
5,test,AF3,-0.0010946754066419482,27.711610796822278,-0.18078066408634186,14.086236552795768,14.079434859301974,1.9672827935948733
5,test,F7,-0.03051278448957093,64.07954319912423,-0.21618423610925674,18.068245267559586,18.01280148211367,3.546528301460191
5,test,F3,-0.0058436030724609974,15.337828089256353,-0.2664317488670349,11.473651084578037,11.479910786192535,1.3367870415610104
5,test,FC5,-0.008429791933218973,24.225858554842834,-0.3017873167991638,11.77404970782995,11.782762118849249,2.057563808205448
5,test,T7,-0.0026430232822647398,20.747610712624144,-0.028755021281540394,11.93433997220993,11.932986148469443,1.7384799461835865
5,test,P7,-0.0018215082990313224,15.33475562043635,-0.07720606029033661,10.978317041704058,10.992772496126598,1.396822077754104
5,test,O1,-0.00256234242298943,31.472533210494422,0.175865538418293,16.65568407064229,16.652159729739132,1.8895971535608476
5,test,O2,0.0010594232565825383,14.356523643049801,-0.08969786763191223,12.434878844386338,12.435961865424403,1.154536672428536
5,test,P8,0.00343027219948478,21.494453360027737,-0.010485929436981678,16.61393790530842,16.586321031190096,1.2937603043020833
5,test,T8,-0.001602661872287147,23.936358622781206,-0.21102848649024963,17.831251335239408,17.83078931012447,1.3423824370349402
5,test,FC6,0.04170499946122784,70.04889510833844,-0.3133580982685089,19.43628881778717,19.445411535083498,3.604026250331957
5,test,F4,0.0031580036409917665,18.14787955749737,-0.17253094911575317,14.03442931061983,14.036631389756483,1.2930970797483656
5,test,F8,0.016459437992414283,64.40379756410857,-0.3446680158376694,22.740482065638897,22.75288626385937,2.8321210332398086
5,test,AF4,0.02110619997202895,21.674940463184853,-0.42777737975120544,15.94299909954071,15.959217072947101,1.3595271710081995
6,validation,AF3,-0.007844147710351216,25.67564090992791,-0.5362191796302795,12.707368193471432,12.759566483805143,2.0205317512653083
6,validation,F7,-0.0007020872445364885,23.80070354494996,-1.220475435256958,17.204655395793914,17.221327089574093,1.3833874028519402
6,validation,F3,-0.004919288260207149,11.113886977452994,-0.3777885437011719,8.553931067848206,8.568364571782729,1.2992724502102821
6,validation,FC5,-0.029055041209678497,48.73238511028322,-0.09026484191417694,34.77269466934204,34.78036411078971,1.401455526345762
6,validation,T7,0.00383444265420732,8.91850774425482,0.11159448325634003,8.184237516787647,8.17733972137994,1.0897176097298038
6,validation,P7,0.00027689832312541524,7.436431264305022,0.06869781017303467,7.164269811987877,7.163507749276129,1.037988721734313
6,validation,O1,-0.018118589823632424,17.3384632274829,0.1347581073641777,12.012141845369339,12.010079388091793,1.4434114623918506
6,validation,O2,0.0026547598630716836,9.012130795336054,0.1452004536986351,8.220052412639557,8.217335807738081,1.0963592861620393
6,validation,P8,0.002642850709418444,9.297439917785846,0.21652816236019135,8.47489060292244,8.468486893344933,1.0970572191905066
6,validation,T8,0.005906734268127384,12.929550654266462,0.12560107558965683,10.971360711000859,10.96549424708022,1.178481958149653
6,validation,FC6,-0.005165653189150728,19.707854091492024,-0.3025285005569458,11.508118240857124,11.509818620731249,1.7125175184178665
6,validation,F4,-0.002972535429354612,15.222173746009307,-0.5332432687282562,11.223823431444167,11.2148093859119,1.356237813164767
6,validation,F8,-0.0060989396874010955,31.035873801445195,-0.9142482280731201,19.682105098485945,19.67506323857516,1.5768574370549746
6,validation,AF4,-0.010028113186858473,20.45587021265025,-0.5840244889259338,12.126079120767116,12.158920802037922,1.6869319430398189
7,train,AF3,0.06770305961822487,72.1170922977865,-0.23905591666698456,16.570526810646058,16.57363606701081,4.352130328859157
7,train,F7,-0.0020988638936285963,12.185165492499289,0.012196456082165241,8.040271085071563,8.047669529473012,1.5155167485737622
7,train,F3,-0.0012131231532081885,7.973686461580931,-0.024597061797976494,7.658223495769501,7.655415559716363,1.0411927082025871
7,train,FC5,-0.007990562313926738,12.750552615361775,-0.03472019545733929,7.012252978401258,7.0151519209831354,1.8183246746281545
7,train,T7,0.001043658800395433,6.410473799234791,0.07202932983636856,5.988996244575083,5.985260009765625,1.070375324586568
7,train,P7,0.0034954407921422,5.594289926756206,0.15173210203647614,5.4521427450656885,5.45362908368291,1.026071801186637
7,train,O1,0.0018849103049480183,8.92255060015876,0.13994991034269333,7.887446393680572,7.887257038000516,1.1312343887760066
7,train,O2,0.006417147482855877,12.065869308104658,0.06777720898389816,8.457095821027456,8.443517098168783,1.4267154545067895
7,train,P8,0.005465510203757662,20.354260101971718,-0.021044516935944557,8.7251051917132,8.722816068565873,2.3328383618003237
7,train,T8,-0.006971205429242159,16.185243265046562,-0.0439155176281929,12.457128549067676,12.457008976862111,1.2992756076405672
7,train,FC6,-0.0004649587328022126,16.795001889027933,0.09507330507040024,9.990662754334508,9.988429901598117,1.6810698451152624
7,train,F4,0.0004869882884231567,12.673252703449315,-0.069390919059515,10.34795439831242,10.343877627639262,1.2247109153782232
7,train,F8,-0.0062615040012787716,21.88108959075473,0.019478490576148033,12.136350361815467,12.136417994064432,1.8029381929842008
7,train,AF4,0.004864602467310458,12.681088288278103,-0.08165644109249115,11.05390692923963,11.047747596446632,1.1472041848601309
8,validation,AF3,0.03569377634400286,20.024000089761415,-0.5183145999908447,12.23825200381279,12.253953935129719,1.6361813830539689
8,validation,F7,0.006822897828485189,18.74658939287071,-0.4419061243534088,10.560641447728871,10.558761164733797,1.7751373802111496
8,validation,F3,-0.003901654032757134,45.12681204930585,-0.25068457424640656,6.763905340692401,6.765889980070144,6.671709578461716
8,validation,FC5,0.00019026035464072584,10.18674105076055,-0.30224502086639404,8.301736074900626,8.304076428056382,1.2270615397614273
8,validation,T7,0.005940901149192603,14.103785246128302,-0.12197349965572357,8.597574814081192,8.596665952893167,1.6404376293450782
8,validation,P7,0.002895127604967081,6.354568113560873,-0.01325614657253027,5.789497107839584,5.788285083643501,1.0976027788244551
8,validation,O1,-0.00019279481038029803,32.69077476789182,-0.036097967997193336,6.7750542434390635,6.774910650401755,4.825167975525722
8,validation,O2,-0.0020966256991713414,8.837519914244773,0.020731912925839424,8.311091456384585,8.313045225998842,1.063340472262014
8,validation,P8,0.00038349043628337266,10.353411604690605,0.04247126914560795,9.510830370404943,9.508120209486773,1.0885917634392408
8,validation,T8,0.00597190598975432,13.610398152497314,0.1093008704483509,13.058573054987937,13.055983077516549,1.042257687358773
8,validation,FC6,0.0013996380517834021,16.127842472187183,-0.19017952680587769,12.295573546493053,12.289091779003327,1.311678744485016
8,validation,F4,-0.00397182620941108,31.197262768314815,-0.32571741938591003,10.159468060952424,10.162517527812847,3.0707575023755873
8,validation,F8,-0.005678603364862517,22.657027672240933,0.11706081032752991,18.881785926872492,18.895879686099676,1.199940925079313
8,validation,AF4,-0.006015700572088217,21.932933229811347,-0.4190135598182678,13.912481220281123,13.932083163816369,1.5764932856001483
9,train,AF3,0.003662377126318774,14.763499537309398,-0.7063047885894775,12.624578814554214,12.643347147043057,1.1694251154176594
9,train,F7,0.0029274633663599284,13.119888005999284,-0.21509675681591034,11.891359706783295,11.896873510175498,1.103312684966984
9,train,F3,0.004549792942385325,14.874066294000805,-0.18374589085578918,10.093433516532182,10.088648417863782,1.4736379121770957
9,train,FC5,0.006883127199805094,25.329737451131994,-0.17490851879119873,9.801317578053474,9.793955100917039,2.5843196334999727
9,train,T7,0.002820533954484966,8.829302343204699,0.06634769961237907,7.689650994443893,7.68120789015355,1.1482058613042716
9,train,P7,0.001640679066350624,9.483440610902807,-0.014344660565257072,8.982640410375595,8.995860660403105,1.0557520036033896
9,train,O1,-0.000749615441308735,21.440404102635515,0.11015498265624046,15.400533899386971,15.382415369937295,1.3921857672407685
9,train,O2,0.008034095643340053,18.028598270576627,0.07974912971258163,16.52488696632385,16.52563899600833,1.0909967679244763
9,train,P8,-0.0026172680613854027,17.720398554117477,0.03532892093062401,16.463503233023733,16.440219575162285,1.076344341985038
9,train,T8,-0.0038545955791769795,31.898792103510715,-0.05962509661912918,15.026692085476219,15.032887723907177,2.1228086608856467
9,train,FC6,0.002165135343402254,20.007267752783847,-0.062496038153767586,16.513082386932894,16.50820845935502,1.2116010375274313
9,train,F4,-0.004778485896825235,13.812970386769209,-0.10192791000008583,12.694703341910987,12.694362537166294,1.088089261697539
9,train,F8,-0.006781788859516812,29.438898281174698,-0.17161262780427933,16.51987550129145,16.530819342169963,1.7820290642549512
9,train,AF4,0.0007324385519373085,16.28069960614658,-0.5649949312210083,14.501710765528678,14.517399715087077,1.1226744119629424
10,train,AF3,0.0013861059445017614,15.484360391727911,-0.5301214456558228,11.42962372484207,11.426092608051004,1.3547567937930405
10,train,F7,0.002145122620372358,26.038689703579006,0.1959059238433838,22.34090916724205,22.333029908900617,1.1655161170324673
10,train,F3,-0.0018591641202193438,7.449451100260188,-0.18664659559726715,6.607112445536256,6.609139661598064,1.1274896805022614
10,train,FC5,0.009177085245504394,9.389647871252814,-0.14030399918556213,7.166228838926553,7.167912660659552,1.310263470829842
10,train,T7,0.0019767976757376926,7.412414744207135,-0.13365837186574936,7.032948917497694,7.031665898147029,1.0539554362132995
10,train,P7,-0.00040778152160329855,6.056084695359372,0.06132226064801216,5.357691285896301,5.358634302579005,1.1303534250473775
10,train,O1,-0.0038490985503679236,6.159409476143522,0.07704044878482819,5.294312277451157,5.299399259622403,1.1634012414373203
10,train,O2,-0.0037580242222637985,7.96315667142135,0.0750092938542366,6.909032344646752,6.908820062500181,1.1525719195093005
10,train,P8,-0.005457125505484795,7.019952460040064,0.11339213699102402,6.440248447702825,6.442466252286669,1.0900126783996997
10,train,T8,-0.005132190936439255,9.683623111915079,0.0724337287247181,7.99350608825013,7.990765341835786,1.2114362590089596
10,train,FC6,-0.00832752553879073,11.650441053602245,-0.06204209290444851,8.504468910092488,8.502631208647438,1.369919882919008
10,train,F4,-0.004598475024134664,17.887511147483,-0.14378071576356888,8.894483701054751,8.90750969843656,2.011079197925992
10,train,F8,-0.01681464173805125,19.405406987804486,-0.20317669957876205,11.796789423309265,11.783018299524125,1.644973584885847
10,train,AF4,-0.008969966173527699,14.179562460715818,-0.47503572702407837,9.777502169573307,9.773010850571278,1.4502234021324303
11,train,AF3,0.004949993366257158,18.501887401857044,-0.1611774042248726,9.940198037910461,9.938877012395611,1.8613197977840634
11,train,F7,0.002840321988361669,22.875828402713907,-0.2029467523097992,10.028436389923096,10.03389901103931,2.2810962260976493
11,train,F3,0.004239344332354541,10.248139302398354,-0.0046148671535775065,7.86715238014881,7.869128477493863,1.3026491425610986
11,train,FC5,0.006328538100779992,10.186326793156582,0.07270946726202965,8.056166484151035,8.059315366865176,1.2644136405567374
11,train,T7,-0.006796642409044795,58.835673128333994,-0.01050352118909359,8.877374589082226,8.877029942087637,6.627598344300196
11,train,P7,-0.0005139360676382525,7.480192720434414,0.08866453543305397,6.318736689003557,6.318268023039165,1.1838114307646541
11,train,O1,0.00498138691082273,9.177373622958356,0.0386024285107851,7.688195606590434,7.690005518048671,1.1936966867871281
11,train,O2,0.0003116783550229389,9.825834859737673,0.044192131608724594,8.636957095690816,8.636620064149351,1.137650071764281
11,train,P8,-0.0063188628046372776,10.885602166008036,-0.00733197620138526,9.58894804701805,9.583844707310863,1.1352238131473886
11,train,T8,-0.006245551691148574,48.88205906280692,0.1941460743546486,11.666722375430165,11.673014635859461,4.1898707700246085
11,train,FC6,-0.0036298919135258666,11.791940487118822,-0.03112964518368244,9.120160789258405,9.118646582114954,1.292953135322702
11,train,F4,-0.0004033347582373617,18.069072064706344,-0.058932553976774216,9.4817080405958,9.491697517123551,1.9056769083527847
11,train,F8,-0.005365046429377026,15.631595157939293,-0.18451537191867828,10.755906000843643,10.76258448338491,1.4533034368944115
11,train,AF4,0.00396948120088402,16.487595918137625,-0.16082777082920074,10.613361550417542,10.609288053038918,1.5534753847605411
12,train,AF3,-0.008238863966351798,45.03473110857345,-0.30144640803337097,15.437675618773698,15.422424623222154,2.917196359133683
12,train,F7,-0.00840993899059977,21.752767896651097,-0.25583580136299133,14.996857398051022,15.003848906531875,1.4504884136244482
12,train,F3,-0.004126800139424923,16.152509879383533,-0.0706355944275856,9.655900632633267,9.65226182591217,1.6728123552550034
12,train,FC5,-0.0015218583713853015,17.753894259387902,-0.05637289211153984,10.239302766441554,10.23689723173895,1.7338967959395424
12,train,T7,-0.005773423691989761,16.984868265485865,-0.041842758655548096,7.974827558183669,7.985168779400033,2.129810098283091
12,train,P7,-0.0016616117633793386,16.53096015393165,-0.10098866373300552,7.3562672656059265,7.359077702459359,2.2471940669178525
12,train,O1,-0.007154739582207443,16.76665225827543,0.023251423612236977,9.382360364481434,9.381239815408694,1.7870398926211066
12,train,O2,0.0013380543806681621,33.46329619833589,0.06471345573663712,12.397975585506856,12.399119920780077,2.699093571167719
12,train,P8,0.0009024767658944698,16.83038312294717,-0.03473684936761856,12.254408872698248,12.251373394230193,1.3734145235225332
12,train,T8,-0.0023035773125472487,20.079597076484408,-0.0604979582130909,15.075240435504913,15.084876406183943,1.3319586617798367
12,train,FC6,-0.005167729643783578,21.03948891506356,-0.20143744349479675,16.291212393218277,16.251318007597135,1.291462440439479
12,train,F4,-0.007039377591680121,20.771427811513615,-0.40839511156082153,16.042168889915942,16.040339480513904,1.2948017162798025
12,train,F8,-0.01370181895463155,28.38924573803807,-0.02492427174001932,20.38340077600479,20.36930261672736,1.3927629667890213
12,train,AF4,-0.0008673184202621087,51.28000283998492,-0.6358007192611694,32.7671553224802,32.79475020513966,1.5649818342577884
13,test,AF3,0.004697163041011688,90.50077854522634,-0.8697779178619385,14.447339096689223,14.44290477846003,6.264183178614922
13,test,F7,-0.0005034050364481511,42.99325821703443,-0.6566269993782043,12.154688416671751,12.16799696787275,3.5371748532906473
13,test,F3,0.00025306430110215325,81.80444067553005,-0.20063531398773193,10.054285100197792,10.053085344115216,8.136276210619963
13,test,FC5,-0.0007466098360328648,65.28952315110269,-0.29401305317878723,9.337698743981122,9.335458146103052,6.992035718991994
13,test,T7,-0.0006251841511474797,60.80464566647096,0.044953854754567146,6.192379078648612,6.199642319958505,9.819270573425651
13,test,P7,-0.00024380940778130294,138.58296777945762,0.00787825626321137,7.551976005956204,7.56019110852829,18.35055721445062
13,test,O1,0.0007578971592272679,122.69295874698236,-0.14312872290611267,9.303405853039026,9.300017197809014,13.187961557852901
13,test,O2,-0.005898480993239845,129.68446140399146,0.05320317670702934,10.301759977973251,10.305005767064417,12.588573377876868
13,test,P8,-0.005747146655918383,161.64746286523174,-0.10945829749107361,22.90751059707999,22.922090285791125,7.0565268181448255
13,test,T8,0.007519302697172972,184.50065016614266,-0.09544175118207932,13.310930090618132,13.305099563655189,13.860838341881399
13,test,FC6,0.00043132850378611154,179.64609004135684,-0.47025632858276367,14.428424061298369,14.45132542575528,12.45084627940933
13,test,F4,-0.014047670782522222,144.8019953556794,-0.7807762026786804,14.661808383643626,14.670163459297108,9.876134755465577
13,test,F8,0.02187378623366723,130.7453030477435,-0.8655034303665161,31.225073932385442,31.27742962451932,4.187189542956999
13,test,AF4,-0.012823852984992626,120.81840780522266,-0.8099739253520966,19.73558445280194,19.745312769206212,6.121856086611592
14,train,AF3,0.0007438803180433124,22.690519670889,-0.31489402055740356,18.151068171787262,18.155890628087953,1.2500928020400222
14,train,F7,-0.023927858355121415,46.724593349080074,-0.7801856398582458,34.1606520947814,34.18105332563328,1.3677898542287494
14,train,F3,0.00025313549506151775,18.65836702993924,-0.16062237322330475,15.6615393494457,15.679698948333492,1.1913494972382521
14,train,FC5,-0.0036485103724552643,20.673903466323456,-0.505669116973877,17.22757499914169,17.222125058354404,1.2000472189123232
14,train,T7,0.0021638145451254023,17.012792997802077,0.08929076790809631,12.81399935926795,12.816445751487104,1.327672377749674
14,train,P7,-0.000900027555431393,9.046015203720033,0.057190317660570145,7.488115634185821,7.491745888700832,1.2080496143010755
14,train,O1,0.0011066781454650715,16.232539549106278,0.08443057164549828,13.444045296176522,13.443814638899909,1.2074148213203955
14,train,O2,-0.012101708278920969,44.16806158287248,-0.0016405921196565032,15.895311498913191,15.887483832922753,2.778684871063545
14,train,P8,0.0037030261584284382,6.360285699110892,-0.020094437524676323,4.007282501864433,4.009134421267273,1.5871817612438601
14,train,T8,0.004674141774900535,20.575874362201464,0.02381407655775547,18.215237927425278,18.20603841494595,1.1295967938591656
14,train,FC6,-0.0014675523160207918,20.16530817893908,-0.3034924566745758,17.679842107862232,17.687332020413884,1.1405819156027168
14,train,F4,-0.000266255305959362,16.62818575358035,-0.18771164119243622,13.49477613286972,13.501310101078563,1.2321942646442625
14,train,F8,0.00033574641870826337,26.98075352589573,-0.3211781978607178,24.211598426198957,24.238677268738744,1.11437308065957
14,train,AF4,-0.004339394752892203,23.459834137986643,-0.5071126222610474,19.58411318979263,19.57681993805452,1.1979012738863286
15,train,AF3,-0.005096458084925321,14.195545426847211,-0.16974115371704102,10.402981025791167,10.398874466643676,1.3645651560503171
15,train,F7,0.006009941577389868,17.689210270969436,-0.21136245131492615,12.482105634409189,12.475573636585912,1.4171655639739116
15,train,F3,-0.0029540274777893863,108.90211340066638,-0.07677438855171204,9.216237924975156,9.21973411554403,11.81633051220951
15,train,FC5,0.0011926166935984077,15.484761721666242,-0.10309766978025436,8.66719787017554,8.655303668056796,1.7865937703984394
15,train,T7,-0.002447575012679193,10.158874199941792,0.04624824970960617,6.481727453041076,6.4809808384674055,1.5673096830344948
15,train,P7,-0.002963687021548559,8.702801844102934,-0.08492418006062508,5.98107020945549,5.976712288372246,1.4550576300449793
15,train,O1,-0.006675317410180468,11.502396746876872,0.025747323408722878,8.0160881823007,8.021588763808921,1.434913948710525
15,train,O2,-0.004909568384665068,10.829643423854238,0.1285209059715271,8.69077274698019,8.684851135299152,1.2461082275586193
15,train,P8,-0.004099343679374331,10.336932187036208,0.05749817565083504,8.517351192898303,8.52764898799277,1.2136322611253902
15,train,T8,-0.011509349825283958,17.735219109618047,0.04324669390916824,11.633121022720633,11.635071706383028,1.5245452252219687
15,train,FC6,-0.012095741134588922,15.648538818400462,-0.18824879825115204,13.208195792028308,13.229075319418826,1.1847597555939473
15,train,F4,-0.01129176946744024,15.436476186106349,-0.22825942933559418,12.12246998578012,12.124664965517173,1.2733771421346987
15,train,F8,-0.0238502993267239,23.16572411107667,-0.11855831742286682,20.39196500710845,20.397995205788014,1.1360221588748958
15,train,AF4,-0.01750126046611738,18.54128934839304,-0.044221725314855576,15.627576238200813,15.629759534718461,1.1864468978285836
16,validation,AF3,0.0015012028664147226,44.76650322011827,-1.211208462715149,15.081421199297903,15.080545105874053,2.9683212628662816
16,validation,F7,0.055264153755448096,43.62758147998732,-1.5360580682754517,19.418300075125693,19.403926525582552,2.246725064047859
16,validation,F3,0.0036239301940760335,24.539772469080948,-0.5972689092159271,13.045765894836187,13.035345112862103,1.8810526470350317
16,validation,FC5,-0.0007983632172245298,27.954438397930463,-0.7262956500053406,13.879051349258422,13.875229257932851,2.0141461901446247
16,validation,T7,-0.01457080813174218,37.722610168030265,-0.032388243824243546,11.059573883130401,11.051706599694345,3.4108556592374715
16,validation,P7,0.007330982230660145,24.198170402373634,0.1668512374162674,10.924974925759434,10.925911902674398,2.2149405895035987
16,validation,O1,-0.0002498516121480296,24.29026313859749,0.0712679922580719,11.40930418329835,11.407573458174586,2.128987250086214
16,validation,O2,-0.0007029067506499088,25.244082425500558,-0.11907297372817993,13.554913669073581,13.55540725900298,1.8623565624838008
16,validation,P8,0.0023329731130996988,25.084015950108697,0.008904140908271074,13.777313381333927,13.810036180636192,1.820675428933304
16,validation,T8,0.0013964991006119093,64.20454724040836,-0.36858096718788147,19.174014183425903,19.167706911611592,3.3485188143809257
16,validation,FC6,-0.0019890583026198317,32.74559828145869,-0.7232393622398376,19.93737209240198,19.953138833579708,1.6424229898351475
16,validation,F4,-0.006224152679151671,32.24748628779528,-0.8011170029640198,16.34709664453268,16.358147028024504,1.9726736183810671
16,validation,F8,0.0036848085549665384,66.84909123429654,-1.3589309453964233,28.78927046391964,28.959609032384197,2.3220140752811242
16,validation,AF4,0.0026880142580694155,32.86613193963466,-1.9749455451965332,19.352131738758086,19.355524902965865,1.6983210110031957
17,train,AF3,0.002794174037814291,88.25513453294641,-0.12797818332910538,6.1794449614048,6.179178088041833,14.282048806027877
17,train,F7,-0.0033676586954562754,44.253937437359085,-0.10600396245718002,9.597016622699797,9.596927153613498,4.6112181709350555
17,train,F3,0.0007459288798121083,6.91295500955088,-0.014424693305045366,5.388147582699638,5.3905732902091374,1.2829928845577878
17,train,FC5,-0.007105562420687531,25.94054120441629,-0.0753241665661335,6.61060976505205,6.610530760661154,3.92407691973511
17,train,T7,-0.006362197261352462,14.728873647624422,0.16834423691034317,9.971350143004953,9.974292598891205,1.4771192904059176
17,train,P7,0.0009219182355743008,5.62897210973241,0.04626629501581192,5.1754579602018,5.172679166249472,1.0876278298496558
17,train,O1,0.00023265263762257322,6.136721542251936,-0.028429346159100533,5.4582878709565845,5.455950351005311,1.1242942269324563
17,train,O2,-0.001560346414817066,7.589057701059208,-0.07549602910876274,6.993772493445128,6.992665991419064,1.0851164672817148
17,train,P8,-0.002376226075628782,6.486947493447689,-0.01766093634068966,6.042906244483217,6.04219768911578,1.0734814062968216
17,train,T8,-0.0026259343986325618,9.887452539533122,-0.08765876293182373,9.257892156672478,9.262276544139684,1.0680025617285787
17,train,FC6,0.002104499022359997,8.871229318666899,-0.14237164705991745,7.2817718496635555,7.2814766082876785,1.21827894389149
17,train,F4,0.002151023169955566,6.030871857977958,-0.055957432836294174,5.606578948974609,5.611215943844783,1.0756776838183915
17,train,F8,0.0011764549133499867,16.39508199654192,-0.2777401804924011,14.861599174010752,14.852367921437574,1.1031842404424987
17,train,AF4,0.00099731377933473,8.081707657024841,-0.17101499438285828,6.950958965349197,6.94703313489593,1.1626752074515863
18,train,AF3,-0.009184375683792103,17.95824306498506,-1.1607158184051514,11.700391408395767,11.747534492441776,1.5348412235251283
18,train,F7,-0.011795357000116346,38.32839897212021,-1.119749665260315,14.991378335022926,14.98018537652855,2.5566961299734015
18,train,F3,-0.0033705021470711006,365.8960306982225,-0.4602305144071579,11.204403384473919,11.222273089251225,32.65644926754861
18,train,FC5,-0.00311511096739761,11.777498974881432,-0.6580300331115723,9.9013637321949,9.908619591534094,1.1894825090190517
18,train,T7,0.0009035541841323162,8.321805411006926,-0.20233189314603806,8.059412866441905,8.06175928985392,1.0325572779200307
18,train,P7,0.0027508295852830874,7.439809821213751,-0.01245847437530756,6.545169003864191,6.551370698491938,1.1366871988823166
18,train,O1,0.003949550141502075,8.880405096087506,0.1217789500951767,7.958668270173669,7.961321000791285,1.1158154599015249
18,train,O2,0.0073439875389653565,10.487401697123852,0.1747157871723175,9.962302827090024,9.97158295141493,1.0527085834618428
18,train,P8,0.007541556481687483,11.227238628822066,0.06440772116184235,9.935380113887787,9.936667443028727,1.130026078532064
18,train,T8,0.004967524669043572,16.942577338739568,0.00917382212355733,12.588207482085842,12.574824693028003,1.3459086500481017
18,train,FC6,0.003346277987764158,18.300794692612516,-0.5641161501407623,14.737435253959893,14.737608522905784,1.241789658597154
18,train,F4,-0.0036249153018643853,15.120586190706879,-0.8736772537231445,12.633404134368895,12.630824074204362,1.1968734657645963
18,train,F8,0.0011110792122800326,34.71508497121397,-1.2681190967559814,24.274923551130293,24.28423642581971,1.430080094715584
18,train,AF4,-0.008177617676171327,22.997808346597576,-1.3549251556396484,16.746297969818116,16.735810717447677,1.373307007199237
19,train,AF3,-0.0117106586629962,54.329399088940484,-0.009681698866188526,14.50633232761044,14.505917978251397,3.745219526339771
19,train,F7,-0.011974568190946822,53.428719109898125,-0.15647640824317932,10.843384880304336,10.848271661197105,4.927310032768897
19,train,F3,-0.012155296485648105,56.01637612473936,-0.12374114990234375,9.285625619029998,9.29363494983331,6.032590416949309
19,train,FC5,-0.024119820150429294,69.99101161789167,-0.1380140334367752,13.641727830550074,13.649070413135616,5.130655917438094
19,train,T7,-0.012036113786602737,49.72130565635372,-0.04117824137210846,6.937942064890265,6.9378359040302024,7.166578387555351
19,train,P7,-0.0075558832887567574,46.53300367020449,0.02946077659726143,7.876854897547513,7.875242615028873,5.907561364967217
19,train,O1,-0.007317493617950436,49.1810725161425,-0.001066617900505662,10.625617796723033,10.617416730361837,4.6285376960679
19,train,O2,-0.008102930940552639,55.04046167766845,0.09844888001680374,11.46784384907931,11.461080667087112,4.79954753500479
19,train,P8,-0.008611154587041453,55.39269442760041,0.0489373654127121,13.369601946642995,13.3641846008527,4.143182022072773
19,train,T8,-0.01066392619297612,54.97817436136134,0.020718978717923164,12.785636394309996,12.78990847345102,4.299995140314512
19,train,FC6,-0.013981747471280575,53.107677183642885,-0.21736882627010345,12.501990771880745,12.50531144986955,4.247937640706929
19,train,F4,-0.011559281407557678,47.48337118099263,-0.17551179230213165,11.738902987432478,11.740047724888536,4.04495813891875
19,train,F8,-0.00896725331628257,55.98216431583886,-0.2381783351302147,15.338878207884727,15.336473753401048,3.6496909068006054
19,train,AF4,-0.015764159181776143,60.47400050553351,-0.39174698293209076,13.820767547321319,13.826175298047472,4.375589148610948
20,test,AF3,-0.0022636591938586157,16.36880683040185,-0.6466890871524811,9.12144129318595,9.12047749187789,1.7945417072003687
20,test,F7,-0.00963916569276387,49.13766855133052,-1.1671805381774902,16.356457573986052,16.375010944985743,3.0041754658099675
20,test,F3,0.001546894847049654,6.94254156241469,-0.20805375277996063,6.197793479803204,6.194183524225799,1.1201634234890856
20,test,FC5,-0.0010498486859729394,7.912432583228993,-0.4993986487388611,6.473541665804386,6.485797812799068,1.2222725969348982
20,test,T7,-0.001194167637594918,8.319282740240853,-0.03161915764212608,6.24025932226181,6.2493613421961145,1.3331629841987866
20,test,P7,0.002123555655249693,17.982914996295943,0.009243980050086975,5.637870512732863,5.638049875390892,3.189664423062286
20,test,O1,0.002448901528875492,8.590891196276306,0.0937371551990509,6.625390002948046,6.63121140736664,1.296661961402074
20,test,O2,0.0062873319440063516,8.223822813705484,0.09921208024024963,7.725826295667886,7.7232840858272835,1.0644586739306887
20,test,P8,0.0031837529521681063,6.906248316947831,0.04330366104841232,5.9504165765717625,5.951029579227637,1.1606327436199022
20,test,T8,0.0021068644293261267,10.62936774110292,0.04890401288866997,9.028591670036315,9.026854722211766,1.1773007496151575
20,test,FC6,0.0018989112050445324,11.05026547555702,-0.2204982489347458,9.880201274871826,9.886713890431986,1.1184251381255768
20,test,F4,-0.0032241942496551855,7.166412527890851,-0.11279349401593208,5.930657758272439,5.934682044389073,1.2083672368203522
20,test,F8,-0.00018191364006884828,16.95432886918254,-0.9995087385177612,13.397476513552665,13.46298197271914,1.265486739389453
20,test,AF4,-9.135491240795245e-05,15.10932366557482,-1.242214560508728,11.56544623453617,11.557956197864485,1.3064194289759523
21,train,AF3,0.001981457723405657,17.052496839029033,0.1282377690076828,11.011380619713664,11.030832072202147,1.5486247753982787
21,train,F7,0.006472550913980666,18.893195242663637,0.08579709753394127,11.358753190288692,11.354261809052849,1.6633159402403963
21,train,F3,-0.0045319630767878235,14.784201136733884,0.15317022800445557,10.049061381840705,10.058725383919729,1.471202192420665
21,train,FC5,0.006419882155096413,14.657225095056528,0.012387853115797043,9.432519075458496,9.434879842380669,1.5539035731389783
21,train,T7,7.051284814304233e-05,91.22813134855438,0.4367995262145996,9.214759718370438,9.20376060095604,9.90021814314735
21,train,P7,0.006226563380463757,16.560359528194187,-0.1932118535041809,10.981479290378093,11.00466090542374,1.5080262950278724
21,train,O1,0.0060118001301604105,22.108635723598447,0.025706985965371132,13.643968146994336,13.641312000396253,1.6203963161896426
21,train,O2,0.006032783957518429,17.590416683798377,-0.26079443097114563,13.455241584491729,13.44149125073025,1.307328194246083
21,train,P8,0.006587105426912906,17.556791306454564,-0.15074223279953003,12.808299106514454,12.803800729931153,1.3707355801462326
21,train,T8,0.0021653125229235187,55.78149501212717,0.23869923502206802,14.099984039913117,14.159753465758508,3.956138876060096
21,train,FC6,0.005982870207487634,21.183266147766833,-0.44877012073993683,17.27057658379376,17.26953765920041,1.2265523414918664
21,train,F4,-0.0007410662775362467,28.91338410370982,0.4280482530593872,14.536459556508063,14.557106040688778,1.9890251812220066
21,train,F8,0.009915903893630963,21.94896229412957,-0.12606342136859894,14.972052136829495,14.971374846812617,1.4659955825385949
21,train,AF4,0.0013992011269586733,18.95818146217368,0.5307106375694275,14.121572760236262,14.15771656870577,1.3424978778253662
22,train,AF3,-0.002365945631346541,25.641741100999397,-0.6616969704627991,18.69987522844076,18.70239249329111,1.37122525085091
22,train,F7,-0.0011106971102803583,37.8483895506246,-0.17889748513698578,18.507976461848617,18.505077524658837,2.044977182062194
22,train,F3,0.0026607038978408424,37.66550924973442,-0.3090146780014038,14.390621385169029,14.406151025714125,2.617365035296703
22,train,FC5,-0.003398508195712449,38.475383320796865,-0.22987517714500427,13.924107820039987,13.932257250028686,2.76322072610081
22,train,T7,-0.013927883735535938,72.17300032525988,0.18894720077514648,10.721663193511962,10.717154167774787,6.731511615561118
22,train,P7,-0.00340991470638687,9.895220038540225,0.00477257976308465,7.93327087782165,7.94168054129655,1.2473064629878483
22,train,O1,0.00210290545428879,14.813176664305164,0.08958859369158745,10.231065547954291,10.222760017400676,1.4478625510582395
22,train,O2,-0.0034148287150088663,17.489239277160234,-0.05940490402281284,14.963526730465516,14.973183929522538,1.1687912610569542
22,train,P8,-0.01027928118781491,104.57000042874509,-0.09200605005025864,16.126777273750303,16.136004714456817,6.484246582790884
22,train,T8,-0.016092933162739784,43.14741583923635,0.16709673404693604,16.966522166275976,16.953308552260573,2.5430913546324554
22,train,FC6,-0.009770095070346211,32.02411421223312,-0.2279895693063736,16.50233836168349,16.50222466555766,1.9405803899033722
22,train,F4,-0.008260141368796242,21.521136387693755,-0.24365068227052689,19.448192225043474,19.459568190521626,1.1065880128427026
22,train,F8,-0.005856553766560606,45.34083861695276,-0.3707498013973236,27.80842777953744,27.800550453745938,1.630471128264086
22,train,AF4,-0.002655340768124321,28.10939430145084,-0.5801672339439392,22.38123869075775,22.37943970246877,1.2559355936389038
23,train,AF3,-0.0032738304514373802,13.203870075616054,-0.462263360619545,9.275524923500418,9.27608440857273,1.4235172871093045
23,train,F7,0.0013376750635542272,12.685620263546015,-0.2901877164840698,10.944696313905716,10.948555481884549,1.159065532720938
23,train,F3,-0.003562691881453444,120.71028013084323,-0.22711346298456192,18.34310574531555,18.41397882833403,6.580689323108228
23,train,FC5,-0.00034264318256228344,10.02990965729889,-0.11253903806209564,8.015275143814087,8.016589926825,1.251349389426716
23,train,T7,0.007399199706501588,8.09337741724586,-0.015873799100518227,6.496633515790477,6.490226318608221,1.2457802025578935
23,train,P7,0.007452967158069195,8.341286354781634,-0.05593400076031685,5.954466218673438,5.956029432450868,1.4008453568219155
23,train,O1,0.007344515945569115,9.626042974851826,-0.11828974634408951,7.132216776309907,7.128636955419587,1.3496565341122715
23,train,O2,0.006359728916513524,11.104359836079231,0.07029516994953156,8.306989905282855,8.312669394191236,1.336748926228667
23,train,P8,0.013802911873720456,15.25344511634455,-0.5034807920455933,12.32155878818035,12.369999274048123,1.2379476800432634
23,train,T8,0.005288939261215437,13.244650188794735,0.10866514593362808,9.873570001602172,9.861875411048477,1.3414246505210923
23,train,FC6,0.007414940929744043,13.09598287003307,0.056074898689985275,9.476429549503326,9.477547577701735,1.3819532769828327
23,train,F4,0.00749223311187141,73.67162141671399,0.024023388512432575,9.470348643636703,9.4677098509645,7.779187883036943
23,train,F8,0.007735388551492559,17.91011423808623,-0.02733924426138401,12.333813388252258,12.335035693124103,1.4521149035014023
23,train,AF4,0.00504475263698509,17.541269704684858,-0.10891493782401085,11.4519991963841,11.452427963754529,1.5317211784492097
24,train,AF3,-0.0018149111409991598,15.73102346508116,-0.4242893159389496,12.937800211805104,12.930387386664185,1.2158963044372395
24,train,F7,-0.004500262581326174,28.729460348002412,-0.25027358531951904,13.596881657910346,13.573775033406456,2.112944796521656
24,train,F3,-0.0010841596741373125,12.915629124290325,-0.19355878233909607,10.863911914247273,10.868625167213253,1.1888562081723404
24,train,FC5,-0.0036360629178777094,12.23528629829091,-0.10647247359156609,9.704373531382531,9.697711229147604,1.260801252004962
24,train,T7,-0.0016412538691943609,10.2696662271198,0.06838314235210419,7.699910844066738,7.70709742609,1.333738329585104
24,train,P7,0.003144341175511896,10.018573759123951,-0.018409138545393944,7.141974461519346,7.126691431536155,1.4027736745774715
24,train,O1,0.003238694829243237,33.49341172947365,-0.0875646285712719,9.83508481753394,9.832019095424373,3.4055030892831515
24,train,O2,0.003659052935144725,16.195363447902754,0.09170156717300415,13.637916991388797,13.632537525083684,1.18752471203108
24,train,P8,0.000775647089199083,16.122032785639075,-0.005182153545320034,13.615364044198952,13.601384046256234,1.184105891939638
24,train,T8,-0.003950382075925793,16.601119764103668,0.09309682250022888,13.798134129720925,13.796176443813994,1.2031423675136745
24,train,FC6,-0.001880293582260222,16.693222303683196,-0.0028750343481078744,13.910463919814886,13.894482132591435,1.200047848864651
24,train,F4,0.0003143333185700637,54.04893016770033,-0.09992393106222153,13.672397635115683,13.673231281820627,3.953142061117579
24,train,F8,-0.005213171946253796,19.587529961744774,-0.08735456317663193,15.906504617477953,15.912766806543802,1.23141635656536
24,train,AF4,-0.0030341720716879424,19.2820615319704,-0.3812731206417084,14.93781847577691,14.947890705139748,1.2908217865438714
25,test,AF3,0.0196076559865609,14.910464941535947,-0.011698278598487377,8.442468766736983,8.453152814204822,1.7661261597179525
25,test,F7,0.004463678451578609,37.739345362602705,0.09739630296826363,9.161572840630262,9.169254327721735,4.119308553137745
25,test,F3,0.00987065084429277,50.55033667322345,-0.11056831479072571,8.670474635124206,8.671390824710288,5.830169489043123
25,test,FC5,0.001358877104349451,16.578019588313428,-0.08987171947956085,6.952119681188464,6.9595388874820285,2.3845992802988425
25,test,T7,-0.0020203799474936782,17.545018203928084,0.054111603647470474,6.029654708274453,6.037298885427465,2.909788213884151
25,test,P7,-0.007363579948462517,16.32107091349102,-0.00659397104755044,6.132631523409392,6.13069551975485,2.6613486969159106
25,test,O1,0.019358685102067615,41.82554982619225,-0.20904318988323212,10.295982351896166,10.290941987062402,4.062317552291591
25,test,O2,0.004039294082723524,18.091456457855923,0.08521343022584915,9.847179948695004,9.847649828074507,1.8372220830851669
25,test,P8,9.621511679363942e-05,26.286869312548163,-0.054560886695981026,13.483857861614226,13.500518141365475,1.9495065568275887
25,test,T8,-0.0017053601397647624,19.01258039378469,-0.02249974198639393,9.223396719281002,9.225837118630944,2.0613425804443537
25,test,FC6,-0.012788922729200564,18.882639533407612,-0.0839155912399292,9.999343445849417,10.002464873424895,1.8883879362345057
25,test,F4,0.0028929166507678755,17.591751453839997,-0.0017104338621720672,7.305148109197639,7.3071621894129475,2.408130703290037
25,test,F8,-0.004468507422335327,18.6725466847569,-0.05788623169064522,10.23432453951761,10.233185572302546,1.8245021068715317
25,test,AF4,0.019254646519457127,16.58936740443575,-0.07553571462631226,9.553882891988755,9.548509978116929,1.736400539130167
26,test,AF3,0.00806570701563875,18.279862783425788,-0.4437326341867447,10.543647285595535,10.54700212711931,1.7337323876908588
26,test,F7,-0.01993331185982066,20.595057823752743,-0.3281794488430023,11.023975598341226,11.028130554640356,1.8682060423692952
26,test,F3,0.00604004434521935,11.120133487000961,-0.08901596069335938,8.781827004146576,8.78193892753946,1.2662665162670923
26,test,FC5,0.007678864214280206,12.304146177181758,-0.06571214273571968,7.56429790898636,7.563824561722107,1.6266078260302883
26,test,T7,-0.804014781382605,250.12586330859727,0.10223717615008354,11.410841597700118,11.408725608446758,21.920018884409956
26,test,P7,0.0012019163048130302,10.160163500032642,0.04178139008581638,5.68768497068882,5.691215672079416,1.7863442775738285
26,test,O1,0.010250686428133957,20.64137277500315,0.17686790227890015,14.073451490628718,14.082211578572743,1.4666887357907832
26,test,O2,0.0025806766697454163,15.272836465602357,0.061547355726361275,9.606897263504191,9.603930898204037,1.5897782652077066
26,test,P8,-0.022203054890913128,17.35393567173799,-0.024306243285536766,10.222125499225035,10.234020832647122,1.6976836835992315
26,test,T8,-0.007724082917328311,16.3064490005091,-0.012804453261196613,10.309720873616449,10.31036426439561,1.5816576608042654
26,test,FC6,-0.0057380703403943105,22.73608091539767,-0.047588879242539406,11.981118100238218,11.969574121654786,1.8976593607691434
26,test,F4,-0.008641758003458554,15.944286297103547,-0.11508694291114807,10.02926706647873,10.033344056007154,1.5897758222427691
26,test,F8,-0.004184508995566874,20.34297411801519,-0.26830221712589264,13.668983830627798,13.657157733937032,1.4882579692890647
26,test,AF4,0.005223874678088615,21.053233502919625,-0.49590176343917847,13.223749083817005,13.238518922040868,1.5920775091448316
27,test,AF3,0.022179839740667184,63.01336034927848,-0.21631161868572235,18.882198812887072,18.959048944901678,3.337183395520227
27,test,F7,0.030420964880325092,39.200695774201215,-0.29541677236557007,16.68621919956207,16.664132089240187,2.349285677322879
27,test,F3,0.018332668174366518,85.40476360670633,0.16241665184497833,20.40568228278458,20.41813335743898,4.185342221012563
27,test,FC5,0.018087889713082117,16.567169785261598,-0.030330262146890163,12.85428009020146,12.849290782739004,1.2888446236588849
27,test,T7,0.013158595689216438,12.005307367263171,0.05225741118192673,8.864953149501979,8.86245830753629,1.3542437466731128
27,test,P7,0.01706236992862694,16.089263193352565,-0.0077002153266221285,8.55954467396736,8.558579336015095,1.879686806505698
27,test,O1,0.010733908935866015,13.814888645115186,0.031214585527777672,10.657108476730809,10.659129819311506,1.2963074060172335
27,test,O2,0.007638200257626731,17.678662580125884,0.12098165601491928,13.971908318151533,13.97130681992991,1.2653004999437865
27,test,P8,0.006398752060764198,18.15757288985398,0.15688231587409973,14.52790305776596,14.524704089776245,1.2498412756235846
27,test,T8,0.003491911431957625,21.040200437529563,0.1993587464094162,15.671460057690739,15.668813169576929,1.342580739769944
27,test,FC6,0.0012365863513429537,30.98098596127214,0.10055630654096603,20.608909920077025,20.590640775710234,1.5032811575876086
27,test,F4,0.0035165845401381275,21.111125610862167,0.09098708257079124,16.13695766231194,16.15750710110562,1.3082469479465424
27,test,F8,-0.013254700493529652,33.51567488250534,0.34605081379413605,20.06243029320538,20.035161010595143,1.670569038380969
27,test,AF4,0.005733765334925182,41.65788818063714,0.21531940251588821,28.623309948348997,28.619173812017873,1.455383331131485
28,test,AF3,-0.0045914958355103555,20.110774714818675,-1.6871731281280518,10.746550970077514,10.742153478075258,1.8713701512992142
28,test,F7,0.016637543731640968,55.427234242986046,-1.1543917655944824,24.307497029972076,24.403601420906583,2.28025263870822
28,test,F3,-0.010248822961317811,12.682574405832892,-0.8143056631088257,10.294714001584053,10.336218276140512,1.231950144888087
28,test,FC5,-0.012809917907942248,15.305774499536879,-0.664670467376709,11.627774370861053,11.628726573234315,1.3163116183173293
28,test,T7,-0.0030536723220831318,21.19151265166822,0.008698515594005585,7.9388529780194155,7.9409366541212805,2.669341869706104
28,test,P7,-0.004786082736014375,10.924605610495714,0.11956917494535446,8.309636162424088,8.308567145385064,1.3146912087314286
28,test,O1,-8.64847133510847e-05,11.987275189030143,0.04277065023779869,9.235280649270862,9.246146175223338,1.2979871044824776
28,test,O2,-0.0047206991735390565,12.034688888128906,0.07037162780761719,10.161608334445953,10.15276233738135,1.1843291427926386
28,test,P8,-0.008134476358530702,13.447910821706685,0.0379338301718235,11.234704587364195,11.228662406717785,1.196997279023403
28,test,T8,-0.010395493496734652,16.741966450878184,0.05942101031541824,12.556696986865997,12.563006978639415,1.3333097444646373
28,test,FC6,-0.013771406363317154,32.470305345128125,-0.6267392933368683,16.170499536591766,16.175673748494255,2.0079964302680935
28,test,F4,-0.01850898810325578,16.653247664145685,-0.7340326607227325,13.746419521236419,13.779034342387591,1.2114607471726435
28,test,F8,-0.017000539092612604,55.89820270186169,-1.7744503021240234,20.478240002059934,20.584853160284112,2.72963900687944
28,test,AF4,-0.012597810212306236,31.307556304973712,-3.406876564025879,19.843228425407407,19.92128918664026,1.5777450943863198
29,train,AF3,0.0012681027561296941,11.655503279347284,-0.16005843877792358,9.591482494211196,9.603432499098725,1.2151930930783432
29,train,F7,-0.015983155118574913,29.78712777171693,-0.3675737679004669,21.200128283947706,21.197913751679938,1.405044694671547
29,train,F3,0.0028194196644750337,11.404125064814838,-0.11454126238822937,10.053976689434052,10.052025273961434,1.1342899846584773
29,train,FC5,-3.7477611852708615e-05,8.907431486245153,-0.06984209269285202,6.257971809737384,6.254082790032593,1.4233735397122145
29,train,T7,0.0014731541562019934,19.01610309482291,0.22357695549726486,12.348865346856414,12.327004044563175,1.5399069113393271
29,train,P7,0.0049111740763709355,10.131748773535016,-0.0028265643632039428,7.540663134513027,7.534989257314808,1.3436150896547536
29,train,O1,0.003410464154881452,10.567701632192994,0.04587577283382416,7.918482590675354,7.9211598418216695,1.3345614530538095
29,train,O2,0.005414347654594295,12.102965560765323,0.055232537910342216,10.121330772399903,10.125848785694481,1.1957879682945634
29,train,P8,0.002936838326363621,8.489935901637018,0.028269493952393532,7.223600495594367,7.224724149597937,1.1753052936433823
29,train,T8,0.004024628286937993,19.73291780722254,-0.10938318073749542,17.431006627178192,17.4555654787328,1.1320584191882093
29,train,FC6,-0.0013952768877753617,17.951660282440216,0.011034964118152857,13.89012303056717,13.908685269931938,1.2924046995793386
29,train,F4,0.0027837853169478113,14.931362205356756,-0.007449574768543243,12.683058720226585,12.680013945051439,1.1772682390521965
29,train,F8,-0.009057211946630122,24.801540811506683,-0.20106999576091766,16.837565176221727,16.834025740004893,1.4729885557640963
29,train,AF4,0.0007342233279322918,16.69484385129862,-0.14880123734474182,13.093412883478402,13.084997151673857,1.2750567021654526
30,train,AF3,0.013428469920358291,36.23942314261302,-0.20497706532478333,18.672219045513867,18.670466672587697,1.9408203735334713
30,train,F7,-0.029393312805857368,91.04310361835543,-0.6434944868087769,33.067384098887445,33.22908381694683,2.753259929666423
30,train,F3,0.00019552199071574397,7.48483859314231,-0.07811560481786728,6.8462573109626765,6.839102334318734,1.093274507979286
30,train,FC5,9.01405935004228e-05,8.566829413005731,-0.07482144236564636,7.3373289005756375,7.335966299691847,1.167567861423472
30,train,T7,0.001087046323251217,6.251965447254941,-0.02666662633419037,5.8563319516807795,5.855303017451553,1.067556535189337
30,train,P7,-0.0010009045264862142,14.915169761744892,-0.0489250048995018,6.223951782788336,6.225334086888273,2.3964147349263176
30,train,O1,0.0006406907609014193,7.855820013181847,0.04105214402079582,6.921686569733172,6.942181961902254,1.1349574896288153
30,train,O2,0.0005926711976008782,9.612127189567065,-0.06569748371839523,8.79501150906533,8.794423648390264,1.0929067210042314
30,train,P8,0.0029334515742443666,10.617951769196809,-0.07896183058619499,9.518619435024261,9.51728933912635,1.115492833984674
30,train,T8,-0.00016642470470404423,16.905042994310485,0.01395634189248085,12.080031145832686,12.073915034775561,1.399420480810789
30,train,FC6,0.034615941481249794,60.69341394410137,-0.29520881175994873,19.10385824611187,19.094115455915876,3.177023885028777
30,train,F4,-0.004520572428926592,50.88006831310735,0.014243653509765863,11.449846912185754,11.449540783689145,4.443733501707967
30,train,F8,-0.005446143930188358,30.726157019483715,-0.15026896446943283,17.105777214865384,17.104411142856833,1.7962444286239068
30,train,AF4,-0.004089371462013074,37.12064958811699,0.23728545010089874,18.48871497247517,18.49178193320691,2.0077463276046967
31,train,AF3,-0.008777219494586031,57.95181310697746,-3.6924164295196533,23.36873390135765,23.76154566624149,2.4798867303465952
31,train,F7,-0.0031638165263974836,83.51680366244905,-2.468098998069763,18.350234187340735,18.355111177980326,4.551266365857321
31,train,F3,0.0018105922612943613,21.31466149304931,-1.6732831597328186,14.538682853472231,14.55763642924021,1.4660655100512625
31,train,FC5,-0.004999486598858066,20.212760123063333,-1.1235759258270264,11.267373152160644,11.27656236058964,1.7939194744062694
31,train,T7,0.0015754726203507854,13.8433366868954,0.0023226055782288313,7.343612602467416,7.343667361186645,1.8850853709581725
31,train,P7,0.0002348863254620464,10.19520015058329,0.025892898440361023,6.00681965830028,6.007537742824003,1.6972708905111653
31,train,O1,0.0008809279095810079,10.555633395953118,0.010074758902192116,7.299566697835922,7.300236562696362,1.446063010710281
31,train,O2,0.0038683486918717493,28.34549367685349,0.0070069783832877874,10.581352025842666,10.590342082652098,2.678815864704789
31,train,P8,0.00033874006422559286,13.303809560170663,0.1474408656358719,10.086107899287342,10.100376349718506,1.319023124976749
31,train,T8,-0.001004429619399616,14.859741246723221,0.12334360554814339,10.995340161531418,11.004919383683145,1.3514580748226324
31,train,FC6,-0.004973932073563612,25.13209534949153,-1.2744059562683105,15.423406318759918,15.511814446869915,1.6294776153904902
31,train,F4,-0.0040098887756822655,21.76381864536577,-1.6564010381698608,15.000541227650642,14.988072100526939,1.4508688930002283
31,train,F8,-0.00471270137727884,42.96371680865709,-2.8871355056762695,24.07844026737213,24.15279514971621,1.7843230845344975
31,train,AF4,-0.00897277013013545,41.73813649068497,-3.3640244007110596,25.109908666992187,25.09294835791224,1.6622177740356
32,train,AF3,-0.0015831290675077366,26.260553969872216,-1.0513020157814026,11.605585851252078,11.63116431041856,2.262751256718253
32,train,F7,-0.001193860843163809,85.86272863297978,-0.9992936253547668,15.394777051270006,15.397371584791179,5.577393446298494
32,train,F3,0.0008669283735224093,21.447870947540167,-0.4773976057767868,8.331186497095226,8.331562873608453,2.5744077335224986
32,train,FC5,-0.005918277784343371,22.017107421687317,-0.5779663324356079,11.997476515889167,11.990733991471638,1.8351448650496123
32,train,T7,0.0013878138506958897,18.00552938669701,-0.06913690268993378,8.192048417043685,8.190633545459157,2.197927608586422
32,train,P7,-0.00037071908407695545,11.25089774925216,0.034146565943956375,6.35426246081069,6.35082691664869,1.7706063950995101
32,train,O1,-0.0007780372898859233,8.573914377016763,0.13702863454818726,7.402956855332851,7.410160341114358,1.1581743004270506
32,train,O2,0.0015210263395648031,9.344497411219047,0.20549051463603973,8.10097703821957,8.106394994691888,1.1535025179225513
32,train,P8,-0.0012760259895508847,10.110008531463656,0.19158930331468582,8.901710321979225,8.895599020243221,1.1357377589002218
32,train,T8,0.0011341966153921518,21.598707818571395,0.11382853984832764,12.933842524051666,12.943431127504388,1.6699374357161545
32,train,FC6,0.0006429548396709293,14.746371926536089,-0.07679558545351028,10.797717100064457,10.799947361136649,1.3656934877880862
32,train,F4,-0.0006244074406889834,13.080514819107409,-0.4655522406101227,10.137826373952626,10.13749329755711,1.290268183396345
32,train,F8,0.001476668052297604,99.80848759840342,-0.4835679829120636,17.097353900527953,17.093148560237672,5.8376569952922015
32,train,AF4,0.0026243710028635374,99.88802157831078,-1.0477216243743896,15.782754875850676,15.87528843098521,6.328934483494404
33,train,AF3,0.05689008104640407,66.01021308347957,-0.3538000285625458,9.007246110391616,8.993452438343182,7.328567719197093
33,train,F7,0.05834026978542942,115.78036532124499,-0.028559772297739983,8.465814666223526,8.462339882677444,13.676222535697546
33,train,F3,0.015432406064772178,43.559800281158765,-0.18592682480812073,8.097321376508473,8.096572202254084,5.379532101508554
33,train,FC5,0.06012184446348792,113.6971678832813,-0.0638081319630146,7.216765460789948,7.218128226261125,15.754588187882717
33,train,T7,0.006234043663524161,350.13742995153166,-0.09826729819178581,33.72256859493926,33.72254877111663,10.382881391901941
33,train,P7,0.011696217337552562,65.00941835938522,0.03837387263774872,5.601724616575241,5.601103169728952,11.605250669950001
33,train,O1,-0.05359127605655781,76.01472071310563,-0.19358688592910767,10.010100088655948,10.027258638278743,7.593802263700652
33,train,O2,-0.009235287889956189,61.5618678302678,0.13523373752832413,9.076879074954986,9.076941446342497,6.782272554465324
33,train,P8,-0.003915111912385322,95.45263775474915,-0.032307470217347145,9.446249479579926,9.439622852164256,10.104818633161265
33,train,T8,-0.06240076224152001,177.05650217916997,-0.06549670174717903,13.367970352077483,13.370564816349784,13.244830555122682
33,train,FC6,-0.06813574732603142,144.1041355009259,-0.2538464814424515,12.912600997808575,12.902067536508888,11.159961925980841
33,train,F4,0.009318158169678,117.25807577766898,-0.13956371694803238,10.555956531371177,10.557341169126834,11.108237839857571
33,train,F8,-0.08075515290009681,163.34762689226204,-0.5450657904148102,14.38465072068572,14.385721434302646,11.355689482078382
33,train,AF4,0.0017219785569403251,71.1213932833917,-0.4795798361301422,11.515590043920279,11.524176579921487,6.176096319175642
34,validation,AF3,0.004849871714305984,15.174414483459465,-0.28189608454704285,9.192980041855574,9.197670588058573,1.6506523906687998
34,validation,F7,0.0043765798545615095,33.2256364741206,-0.22495491802692413,8.810488283613324,8.813568801681937,3.7711458666731494
34,validation,F3,0.0003101213181574204,15.834459850189674,0.04524667374789715,10.415567120487616,10.40334627308432,1.5202686197511988
34,validation,FC5,-0.0007279331062613815,13.179709231566996,-0.07812293618917465,5.194054135094583,5.19785402084475,2.53746089062027
34,validation,T7,0.004079322900638472,327.63054318548035,0.1412241905927658,11.041498057508468,11.058578940123606,29.67265324678332
34,validation,P7,-0.004970718611295871,13.47186563922702,0.10110147669911385,8.167785354537516,8.168540767955285,1.6493902636340567
34,validation,O1,-0.00143050025376919,21.12463605627891,0.3303413391113281,11.295805620002746,11.297891544712483,1.8701309819700822
34,validation,O2,-0.0030363651895418944,13.225977349678152,0.12310206890106201,9.405083800578117,9.405316733889796,1.4062583205122712
34,validation,P8,0.0010340873016474461,20.09866383628557,-0.02743441704660654,11.715425340932049,11.710395275706976,1.7155726959450346
34,validation,T8,0.002524932290168213,18.669032995827187,0.10783405229449272,12.045546989404409,12.058439035606526,1.5498700899385456
34,validation,FC6,0.0026120727754761065,40.186432941597495,-0.19049081206321716,12.378800709629058,12.376165460709558,3.246391462650966
34,validation,F4,0.005918214847515874,14.20659499073585,-0.19105562567710876,10.16479318370819,10.167403076205808,1.397627549717955
34,validation,F8,0.004950404138256588,47.79879537551458,-0.24964962154626846,13.034927874447405,13.026900782772486,3.6669781249204596
34,validation,AF4,0.006423514841670211,15.24653821260886,-0.30193236470222473,10.378160366123915,10.368204099147562,1.4690983444788694
35,validation,AF3,0.0032220441304427576,19.061260355309223,-0.2659100890159607,8.747515732276439,8.746781289091457,2.179048422282603
35,validation,F7,-0.0023822170251642585,18.75348969883076,-0.14671070873737335,7.589066910955309,7.588527571987099,2.471119298178658
35,validation,F3,0.004964871173810734,71.41940259126032,-0.18608224391937256,10.560336439204216,10.583622266488044,6.762985535775431
35,validation,FC5,0.0019515484879193351,17.768850679806818,-0.02787427231669426,6.808875744766741,6.817136100701176,2.609660000546176
35,validation,T7,0.0005953193745056438,19.281053237144977,0.05539427511394024,5.701906885134056,5.7004178515887425,3.3815096643220026
35,validation,P7,-0.00039642345608230416,16.862460410225218,0.06251770816743374,6.365375921725854,6.368418637693503,2.649091054099641
35,validation,O1,-0.0004962028462623617,18.8822985227479,0.0013818882871419191,8.252229010419594,8.251100491381646,2.288145239171908
35,validation,O2,0.0020482125393096193,15.58714258615502,0.01111550023779273,6.629379402358922,6.63062472799427,2.3512219832536165
35,validation,P8,0.003642528589925153,18.455680964572473,0.09004928171634674,8.777766255059838,8.784806666504993,2.102548692719394
35,validation,T8,0.003426796076626584,23.271063364328572,0.11522150784730911,9.179879786539077,9.168276352030512,2.5350074189917073
35,validation,FC6,0.0034167443881641074,21.044599469192995,-0.010161159560084343,9.674138699769973,9.669794870182884,2.1753460563567675
35,validation,F4,-0.004913598746388036,21.644735890303995,-0.07097357511520386,9.755190020549296,9.752833463246068,2.2187918271924363
35,validation,F8,0.006014009016587428,20.523868833304114,-0.15378836542367935,10.572789749921858,10.573078297614344,1.941197103012079
35,validation,AF4,0.002498094415813825,17.77361009314918,-0.3411308825016022,9.22021991443634,9.221513506392359,1.9276774586819316
36,train,AF3,-0.0014488891697234016,24.813990479208442,-2.2661640644073486,14.277582742738723,14.278672464341035,1.7379685991894052
36,train,F7,-0.00983241083833116,38.38479563287298,-1.4951603412628174,16.738859703111647,16.745420806579364,2.2931547497072033
36,train,F3,-0.001005910537422302,13.590932508692747,-0.9258105754852295,8.084119849348069,8.083943352158464,1.6811888940252124
36,train,FC5,-0.005290526326078677,13.717701082874038,-0.8506188988685608,9.47837907668352,9.478695751385304,1.4472623400998068
36,train,T7,-0.0016419004245252448,27.090622925865603,-0.14927126467227936,6.8364744154930115,6.8391260171131,3.962659885696649
36,train,P7,-0.001067817483862802,7.2213371556020345,0.196115143597126,5.485514214666187,5.481101876280766,1.3164375978271854
36,train,O1,-0.004486083464793889,10.88218912756306,0.12359582632780075,7.761853400659561,7.760130625640666,1.402009103474996
36,train,O2,-0.002956465558593347,9.67675728253954,0.21726453304290771,8.642418269348145,8.65659535240473,1.119681665588885
36,train,P8,-0.001667096111221271,11.53043163730846,0.2251928225159645,10.147838544988632,10.149415905516266,1.1362450817669545
36,train,T8,0.0030627287332246774,24.67798767613729,0.07076308876276016,12.365112573909759,12.356309205006458,1.9957754147914148
36,train,FC6,0.003917489486608443,21.88404605290289,-0.9022475779056549,16.06612586688995,16.072898197386156,1.3621234038756576
36,train,F4,-0.0009789265679237638,26.95887912585492,-0.9936921000480652,13.694801633548735,13.694503910016625,1.968548347557851
36,train,F8,0.004134990215979889,37.1092971474658,-1.784437656402588,25.63202953233719,25.634739467883836,1.4477705364941538
36,train,AF4,-0.011140816540060966,38.05628125239951,-2.7294037342071533,22.553560244607922,22.60142171533131,1.687373560522355
37,train,AF3,-0.0032597225855727787,26.939359190329636,0.06167632341384888,18.381083835589884,18.380756109533177,1.4656023241768268
37,train,F7,-0.006711278001635467,29.39258454634329,0.3727332651615143,19.624963167518377,19.622776047047022,1.4977141253947155
37,train,F3,-0.006046838651139149,35.95126861817937,0.32330435514450073,17.652899776554108,17.649326791049287,2.0365644779747996
37,train,FC5,-0.005643416663145876,26.396017996648236,0.4246790111064911,17.198627467650173,17.215660185704326,1.5347746816597971
37,train,T7,-0.0037532890677949592,26.97744128503642,0.5337123274803162,17.781193793928622,17.792749086780137,1.5171895429342799
37,train,P7,-3.0896529520188436e-05,26.395864273211576,0.47253139317035675,16.245181446048615,16.241649064954075,1.6248426870991923
37,train,O1,0.0010423713524818213,23.632367294461726,0.2774042636156082,14.067672964283823,14.066439721211404,1.6799059342978433
37,train,O2,-0.002225999324201359,25.682582444424153,0.5175128281116486,18.34598735345006,18.329528457947003,1.3999018940561085
37,train,P8,7.952254057463014e-06,26.77595374845253,0.5506970286369324,18.92302499703169,18.943737841606847,1.4149933085567805
37,train,T8,-0.0038271276699726907,28.447667441359187,0.299934446811676,22.784165688765047,22.771831085453925,1.2485718296626869
37,train,FC6,-8.741554991754153e-05,27.780662790789247,0.3489491939544678,20.924134098386762,20.9278890695989,1.3276851821041962
37,train,F4,0.002861479238187737,28.54482734851401,0.2351311594247818,22.42810597015321,22.415693465473918,1.2727257213115002
37,train,F8,0.0008112088300009646,30.141073341598144,0.3552163988351822,23.984685670718548,23.980982662396045,1.256679939666483
37,train,AF4,0.0028829036558437183,36.79168512158619,0.07563856244087219,23.57449208652377,23.584624588091874,1.5606565344675214
38,test,AF3,8.917078790128053e-05,25.079842730557797,-0.215386763215065,7.351854981270432,7.343782682256225,3.4113625465207273
38,test,F7,0.0007237513986109587,30.558557072232013,-0.2197459489107132,9.21308999221623,9.216122754509136,3.316862974099864
38,test,F3,-0.07843291171302921,304.07163410909436,1.5532034635543823,125.08136147968769,125.42034627067504,2.4309907608294896
38,test,FC5,0.003126248485029416,30.78632090383353,-0.17343246936798096,8.770006830239295,8.770600171156334,3.510410139896494
38,test,T7,0.0006904613593457254,28.967102963178615,0.015946844592690468,5.644595480132103,5.6378486158231,5.131829741411458
38,test,P7,-0.0002916853174299392,12.310084210466414,-0.018598701804876328,4.733838838038594,4.730402097779791,2.6004442972475466
38,test,O1,-0.003443811609711216,28.210953027042294,0.010003382340073586,6.316641702294722,6.3145355086047354,4.466131586471616
38,test,O2,-0.0031264430420177374,31.76304278050561,0.04998577572405338,7.702851138063893,7.703237130608358,4.123543634842882
38,test,P8,-0.0023647787761095786,34.23534397040386,0.030463427305221558,9.00926164984703,9.006226036264067,3.800016616343377
38,test,T8,0.0005824382484074843,32.4047953284043,0.09110412001609802,9.118593884181976,9.11658388142059,3.553705290529156
38,test,FC6,0.0032827905588511705,32.796421359759954,-0.08378889411687851,10.339735787200928,10.350687756548995,3.1718819546972465
38,test,F4,-0.0003063893431927325,36.38715586338352,-0.07680577412247658,11.212113990477471,11.222375420131359,3.2453430186570875
38,test,F8,-0.002173999884940687,35.140473761221756,-0.1329524964094162,12.670245169830322,12.69373282226834,2.773464387642339
38,test,AF4,-0.0035450641216166826,34.778574389996685,-0.2569759637117386,11.086052720117568,11.094614520967228,3.1371467616138
39,validation,AF3,0.0015468942813339636,15.424285971213035,-0.40748703479766846,12.20888935496807,12.205726575462618,1.2633652024159387
39,validation,F7,0.0016542761120816934,22.644007358841428,-0.30297595262527466,9.765523990380764,9.760514641797835,2.318770337479712
39,validation,F3,0.0055383231711378334,35.09739109586198,-0.10617398843169212,8.234323496619611,8.2319987270901,4.262328424462593
39,validation,FC5,0.004667100226684142,10.889432062061402,-0.11322484165430069,8.96857914402634,8.977813929253106,1.214175834007606
39,validation,T7,0.00340533267040601,11.084397583044325,0.005284514743834734,6.302310811949987,6.302697822904481,1.7587830739840522
39,validation,P7,0.001462603195066294,6.525177675893474,-0.0021982977632433176,5.823023097294336,5.823391600835756,1.1205824821346482
39,validation,O1,0.004328266541202312,8.96310846322134,-0.025908183306455612,6.870610345018655,6.864683993928427,1.3045578213760578
39,validation,O2,0.003925854155072003,9.68319193946995,-0.07281671464443207,8.510457853326201,8.511987944900593,1.137799176772305
39,validation,P8,0.0012654816675573225,11.490130869231846,0.0009262332459911704,9.577353603700013,9.573133721715703,1.1997187683237331
39,validation,T8,0.002382400715730536,12.025844423164541,-0.06099463067948818,10.407100466263666,10.405839152297238,1.155542262914469
39,validation,FC6,0.0022956679133887066,14.889576310813435,-0.18713457137346268,12.683937094406783,12.669756113820116,1.1738923175028415
39,validation,F4,0.0037389434806137565,12.166982947216342,-0.22564609348773956,10.665478948661685,10.671568234997206,1.1407816757017806
39,validation,F8,0.002840820241892067,20.035768682984152,-0.4814542531967163,14.812053824329375,14.809677033533955,1.3526664783025986
39,validation,AF4,0.006567118924672009,16.706798443090225,-0.5247576832771301,12.433570484626292,12.438987165667376,1.3436847013291668
40,train,AF3,-0.08661812011193949,212.39743290236888,-1.038952112197876,154.69437676849364,154.75259700291593,1.3730132752028226
40,train,F7,-0.005996670460026385,12.526525270524882,-0.17321031540632248,10.530292734999954,10.536345046391922,1.1895704692890419
40,train,F3,-0.002294325255255948,10.670853167028582,-0.05163242854177952,9.10385273337364,9.100625212763397,1.1721249760456367
40,train,FC5,-0.0010345192207539087,9.862332337164885,-0.1253025010228157,8.65052292201966,8.664751777479259,1.1400851053825427
40,train,T7,-0.0014810661349123628,6.544118814248869,0.0589778758585453,5.2925336741231375,5.296409085912118,1.2364812804583796
40,train,P7,-5.0003925810719045e-05,8.377208116496696,0.08271851390600204,6.729217105150222,6.724019683317576,1.24490085333778
40,train,O1,0.0030286228363912734,9.939877231788444,0.058786842972040176,8.447044518718869,8.439951600455814,1.1767284059840597
40,train,O2,0.0007817824227254969,10.766127075571093,0.0757017582654953,9.489889050337672,9.49579411033704,1.1344839774694742
40,train,P8,0.0021929954485580775,10.0160126645597,0.02437158301472664,8.855213919782638,8.860505714162002,1.1310864712351922
40,train,T8,-0.00034747352229542967,11.822511849396879,-0.0006690823065582663,10.670991216659544,10.669624125011945,1.1079113092080501
40,train,FC6,-0.004430674890135213,12.718725206311948,-0.06752713397145271,11.090868407278508,11.088852709182728,1.1467745120810504
40,train,F4,-0.0056955825571094465,12.647587047293875,-0.22856952250003815,11.072071218600868,11.06857369792647,1.1422963958221448
40,train,F8,-0.011172718438523653,16.32567484884369,-0.23949353396892548,13.43419495794475,13.44376373856575,1.2152328367982308
40,train,AF4,-0.007489903920301415,13.794910394483285,-0.21355252712965012,11.539661426706612,11.538950932123115,1.1954345872364398
41,test,AF3,0.007124342382671846,24.439906842862975,-0.6159108281135559,12.414060720169543,12.42518159881886,1.9687278315913692
41,test,F7,0.011639303497847824,17.317231168689403,0.11007790267467499,13.564085023114085,13.602636229824013,1.2766973326383395
41,test,F3,0.04966753997335808,151.31450800933115,0.09924696758389473,18.87693031311035,19.08268674026161,8.015842909810429
41,test,FC5,0.021743164589032724,25.27682678057407,-0.20064805448055267,11.286082484641671,11.285320664441878,2.239645759719662
41,test,T7,0.0004082662219037591,10.048826047856178,0.0016294063534587622,8.733206347907474,8.733010716222674,1.1506456675289636
41,test,P7,-0.005000045473679706,7.643209926531525,0.02669825591146946,6.079586187237873,6.078982547621448,1.2571924619764376
41,test,O1,-0.009884563133498647,8.404408320669393,-0.04999766871333122,7.118528491466492,7.124195636158258,1.1806384326120745
41,test,O2,-0.0034581815400535156,12.477549796221766,-0.030312967486679554,9.787022624549456,9.790232307032536,1.2749076276704907
41,test,P8,-0.0076787179230763825,11.214940688094712,0.02227265201508999,9.636799708509072,9.641624981602357,1.1637619362569276
41,test,T8,-0.008630519690498389,13.55776713095441,-0.014562226366251707,11.857344032049179,11.853087204663819,1.1434067438972138
41,test,FC6,-0.006031580364638533,14.623317135006651,-0.1320250704884529,11.891268509101867,11.873033861481233,1.2297524964484325
41,test,F4,-0.0014314259709267022,12.871927268275941,-0.14037256687879562,10.032063364572823,10.023375543689092,1.2830787446709915
41,test,F8,-0.013889969179699988,21.40034628998317,-0.2611353248357773,14.970621848773956,14.975146950395837,1.4294894698536378
41,test,AF4,-0.0019792495285985896,15.507884224925993,-0.3518379330635071,11.38462818506956,11.395604279944418,1.3621774881733864
42,train,AF3,0.003587169068322244,18.822241657686277,-0.09481414780020714,9.690811488387734,9.690267055276768,1.9422771436881747
42,train,F7,-0.0008260535129784023,16.653947802599127,0.7115358710289001,13.216575042951106,13.212368345154578,1.2600804481098378
42,train,F3,-0.00076039771307644,7.53061093072756,-0.10459153354167938,6.864180947139859,6.86292757892538,1.0970880559122478
42,train,FC5,-0.0004817857433210222,7.887009329857085,-0.08647400885820389,7.1334582511425015,7.1344191803589325,1.1056361518053175
42,train,T7,0.003857533756963384,9.134641260876668,-0.30742865800857544,8.09215381718874,8.117472533387904,1.1288269436344074
42,train,P7,0.0011395856915223635,6.385945901328111,-0.03999340161681175,5.972321058925241,5.9730411017709875,1.0692569669851784
42,train,O1,-0.0022640467007687794,6.731479261442159,0.048779748380184174,6.3115083614364265,6.319930413813835,1.06654049649554
42,train,O2,-0.0023329574444924343,8.478280016771768,0.12388578057289124,7.727737116855383,7.728887010804806,1.0971232443038643
42,train,P8,0.0011876391094215004,8.067294655906418,0.09143933653831482,7.419885910981893,7.416636171475263,1.0872531940102097
42,train,T8,0.0014723374783030165,9.782063982156112,0.09605138748884201,9.1399190414384,9.142867894946777,1.0702571803761463
42,train,FC6,-0.0004925478976679648,10.749814874861496,-0.05211520940065384,9.345431845633685,9.352970070269834,1.1502748136656689
42,train,F4,-0.00021806383084579565,9.363962087625536,-0.08766825497150421,8.081190808698535,8.079902607922735,1.15873542764839
42,train,F8,-0.0036376889262201657,15.473358358381978,-0.06300301849842072,11.70703299884498,11.700568683417838,1.321714764100228
42,train,AF4,-0.00041412373737198077,14.426301727691753,-0.2678268104791641,9.588300848355889,9.588655937681205,1.5045733290862935
43,validation,AF3,0.014614157536276541,29.98883038790634,0.0020255692506907508,16.981134172256038,16.99413044351927,1.7660086825591672
43,validation,F7,0.004323619273776942,19.89047373135268,0.08591445535421371,16.42072813476473,16.42444276915735,1.211302785608031
43,validation,F3,-0.0024514038433912796,30.44239558291108,-0.12858198583126068,10.787165066590905,10.787569389597763,2.8220941642206525
43,validation,FC5,0.0022313093428741972,16.935550716998126,0.1074935756623745,12.309478193859011,12.299128511908144,1.3758138606920791
43,validation,T7,0.0006145695117717304,15.602429127866435,-0.007679631933569908,10.602205997839942,10.591612558527467,1.471621012744444
43,validation,P7,0.0032866798680737204,10.3230950235014,-0.022462325170636177,7.4087899970043445,7.404024730000875,1.3933577585105557
43,validation,O1,0.006635114071469628,13.42711975670034,0.1922708973288536,10.824906955312192,10.837668750443399,1.2403912395857726
43,validation,O2,0.004395320178511036,11.99249175949219,-0.049472346901893616,9.756371061453223,9.755912579988179,1.2291959463159137
43,validation,P8,0.004372441018635659,14.546494101097966,-0.0066431378945708275,10.152747546564973,10.16056493443856,1.4327642871430948
43,validation,T8,0.011176992896687844,18.815247640927904,0.06290340609848499,15.853806355949118,15.852836965189057,1.1867968624372347
43,validation,FC6,0.006277985476547631,16.53137272767841,-0.05578383803367615,14.04245921344757,14.042042554794548,1.1772419970319277
43,validation,F4,0.0008740867349833811,23.85428774598511,-0.25465792417526245,13.535955509197711,13.55785453999988,1.7622906435955756
43,validation,F8,0.006064813314841976,20.29162925652632,0.07301237806677818,15.642630737438052,15.649978455302449,1.2972005538660232
43,validation,AF4,0.001787774182896494,16.553726333562295,-0.14443760365247726,13.892335380716622,13.898891374038007,1.1915726103574955
44,test,AF3,-0.016779588010308544,106.75474626184877,-0.06486424803733826,11.11751711320281,11.123424905419261,9.602390999252002
44,test,F7,-0.020306110110089887,103.68626848932018,-0.04019127041101456,10.2628190264225,10.243958681048598,10.10309820550972
44,test,F3,-0.028706117684012697,167.14307639023556,-0.025735612958669662,13.973654451084137,13.973893546633937,11.961300243635828
44,test,FC5,-0.020922527689626696,106.41998676509672,0.010132589377462864,11.939176984119415,11.927927044075979,8.91351111610528
44,test,T7,-0.00932013521854381,98.61869637427074,-0.014549803920090199,6.747024442467279,6.745781785386682,14.616620588113276
44,test,P7,-0.014093914198486506,57.84949236912347,-0.05126337707042694,6.648356862071156,6.64561796930651,8.701321780597329
44,test,O1,-0.021538643897136927,98.32531203628838,0.018057080917060375,11.144517816936784,11.157070733247817,8.822751567309565
44,test,O2,-0.021798564709653162,98.04875712169266,0.1052788496017456,13.970626016449927,13.997879622157544,7.018207845965073
44,test,P8,-0.01899603302504024,92.36172404810088,-0.0946635827422142,11.791284799303114,11.7884272553463,7.8330500552034525
44,test,T8,-0.026386682807425142,122.90282609545328,-0.19867613911628723,16.621125970745087,16.624358250000814,7.394374262716921
44,test,FC6,-0.02698731866080652,114.44038319374049,-0.06115143932402134,14.76655537176132,14.767443895163229,7.749971493865756
44,test,F4,-0.022369577813778223,111.88811684671971,-0.0824553333222866,16.03443193865195,16.009356553153342,6.977990693702517
44,test,F8,-0.022140493193993784,105.0525186896957,-0.18385671079158783,15.294244619956611,15.29823911905819,6.868761504743981
44,test,AF4,-0.019610708750045013,101.48375269382238,-0.1311325877904892,13.976589721807837,13.975489307457293,7.260981019960548
45,train,AF3,-0.010384262909987861,23.44916099879774,-0.6349431872367859,15.87379419851303,15.869889107344326,1.4772247079399787
45,train,F7,-0.00884910476573401,28.887267275682028,-0.8380177021026611,22.771247696256637,22.73767837513103,1.2685851764034346
45,train,F3,0.00012601229532895167,12.899791518298857,-0.2749965488910675,9.572419306772947,9.57560221118517,1.3475999227459285
45,train,FC5,-0.001858275569196314,25.314468117378308,-0.3373534381389618,14.413603068333863,14.424161437354854,1.7562900821789127
45,train,T7,-0.007864651749653487,15.029041397968035,-0.28318944573402405,7.601250174468755,7.613652100644349,1.9771802075989955
45,train,P7,-2.5924101785329407e-05,8.99607277102125,0.0769512951374054,7.843459109669923,7.836687379275719,1.146952211420381
45,train,O1,-0.0009296573877095413,9.61634849598405,0.17173046618700027,8.609624650172888,8.604261237131038,1.116930050579028
45,train,O2,-0.003599683716983946,15.390057494647339,0.2604632079601288,14.004598080664872,14.00382559417883,1.0989288950673473
45,train,P8,-0.0026526966767830584,12.792076767322524,0.10198891162872314,7.110991278147697,7.1204002032552145,1.7989161098584079
45,train,T8,-0.0009126769566615019,20.589014214809293,0.0051034074276685715,12.518956699848175,12.521535047696554,1.6446270011509017
45,train,FC6,0.001997824667388632,19.671280120657343,-0.45304663479328156,13.520743899419903,13.52456996315404,1.4548962887686472
45,train,F4,0.002911890148489249,13.75206241642543,-0.23204967379570007,11.500846993160247,11.492177943462261,1.1957434460787122
45,train,F8,-0.006849012651790153,29.677331788024837,-0.4276464581489563,17.524714277350903,17.548785199051526,1.693455957018374
45,train,AF4,-0.003981769755328643,40.004148224592754,-0.8012262582778931,20.000226117682455,19.997519683272333,2.0001847973720945
46,train,AF3,-0.005867094724208441,19.11626402144867,-0.3960644453763962,11.444803079625963,11.454140017702457,1.6703008246144
46,train,F7,-0.00046915852287761014,50.95027763514379,0.009395582135766745,14.380432139601465,14.380204050164474,3.5430282720666426
46,train,F3,-0.001924122430176106,34.4298684661755,-0.10352854803204536,8.652874261368066,8.652290032473735,3.9790094512169594
46,train,FC5,0.0008624579375117031,10.070629125092703,-0.049372944980859756,8.68136846659407,8.678164810848024,1.1600278416754815
46,train,T7,0.006918752377806733,11.938658542657572,0.03765505366027355,9.588951228332519,9.587725681053257,1.2450432021577462
46,train,P7,0.00337814069828593,8.231308658169416,-0.0043679215013980865,7.048666323137283,7.0491012067066645,1.1677824258966698
46,train,O1,0.001447674905269563,11.318509249175221,-0.07827305048704147,8.303730217806994,8.305273381226852,1.3630632200577957
46,train,O2,0.0026269953624170886,10.918688229455217,-0.14516530185937881,9.84769531059265,9.863735217355286,1.1087556920765569
46,train,P8,-0.001267597265144264,12.677699724157327,0.1767311617732048,12.157360013866423,12.179194422807404,1.0428003867367106
46,train,T8,0.010017078282636567,21.299355105230408,-0.07948028668761253,22.11900011129379,22.133010153067033,0.9629438490917644
46,train,FC6,-0.00538421777972743,34.2397693194691,-0.2417304366827011,13.066321317592262,13.058187344765292,2.6204597673079784
46,train,F4,-0.003102056987702357,13.23970287169572,0.027441656216979027,11.632533139556273,11.619539504761693,1.1381616293594976
46,train,F8,-0.010748939507049951,23.322135733247443,-0.27551963925361633,16.521240075320005,16.521207839140104,1.411645592396351
46,train,AF4,-0.006312216003197124,23.81755519818893,-0.3557799160480499,19.66350152261853,19.66466189667947,1.2112570678621035
47,validation,AF3,-0.004039398750392506,14.382936516809789,-0.7670711874961853,10.381192291367054,10.385260924840521,1.385480213941376
47,validation,F7,-0.005764640052365013,19.02577908525766,-1.068709373474121,13.776352155590057,13.78159862345815,1.3810462211172159
47,validation,F3,-0.0018171802364131632,9.314822587561123,-0.2161552831530571,8.695260267193614,8.700237440302956,1.0712528781576622
47,validation,FC5,-0.0025228057789301235,11.303116089176882,-0.3039930462837219,9.69128943117857,9.702911634989542,1.1663170488761572
47,validation,T7,0.00042821945786161795,15.570774541609271,0.05560791306197643,11.644025406102463,11.641715083677209,1.3372329584104872
47,validation,P7,-0.0007385533551707733,9.424391973398706,0.17923592031002045,8.681569623979925,8.682360111827581,1.085563139108737
47,validation,O1,0.009267951911237112,10.842279838157602,-0.01763886772096157,9.398615738129989,9.399860147372982,1.1536039072403714
47,validation,O2,-0.05595731125785081,14.258579407296804,0.005400283960625529,11.257550819921073,11.259003335940035,1.266579172981852
47,validation,P8,-0.0074040201985320206,10.233090915662846,0.013106759637594223,8.794852813390643,8.796361395833756,1.163531798972509
47,validation,T8,-0.0016005287056250258,17.89509997602197,-0.05304493010044098,14.176040995225309,14.174258647095813,1.262348210057328
47,validation,FC6,-0.005456257129502959,38.46769585168085,-0.41943587362766266,12.71163053627014,12.736466127117092,3.026181082113804
47,validation,F4,-0.0016637834836754988,21.60679869954339,-0.263875812292099,9.293945330768823,9.314796852128783,2.3248252416561193
47,validation,F8,-0.010304228340564313,21.857352111825787,-1.3178901672363281,17.20374129810333,17.233717786196518,1.270499929816749
47,validation,AF4,-0.0022490906591539554,47.31986443478767,-0.2878623604774475,8.779498900544644,8.779458950147353,5.389813811794218
48,train,AF3,0.00422180008940752,9.608546955426148,-0.18745722621679306,7.277945921351015,7.276756132506193,1.320227858143043
48,train,F7,-0.002716677186385454,23.305680523195058,-0.12403470650315285,15.26863228245154,15.266086190961042,1.5263764358239613
48,train,F3,0.0007519792350970456,10.007626448062569,-0.2465973049402237,8.502255187448858,8.503727509941854,1.177055525554674
48,train,FC5,-0.0002590155329229631,7.128588338188701,-0.08551599830389023,5.781807196949422,5.778180571995107,1.2329342877344411
48,train,T7,0.003350076930700339,8.848722633326409,0.12970420718193054,7.987668050336837,7.997554880853403,1.1077979928013235
48,train,P7,0.002724765393363622,7.442458829809969,0.09598790854215622,6.65277666888982,6.650318385407693,1.118699634787519
48,train,O1,0.001208490894543803,10.43633491730771,0.19842124730348587,9.226874870824814,9.229607719947357,1.1310801396372225
48,train,O2,0.0033503632706820222,11.896277450530873,0.12771181017160416,10.732116230665147,10.737134051199222,1.10847452588515
48,train,P8,-0.0011356165558002406,11.360267538725978,0.1733849048614502,10.370092950296401,10.37094449890906,1.0954836753320785
48,train,T8,0.007112994298681216,13.929406072469543,0.18374040722846985,11.776378827685116,11.797255370420734,1.1828259158683712
48,train,FC6,3.7916611435124456e-05,14.425251363918141,-0.031050095334649086,11.572688143444061,11.57256477050555,1.246490978164832
48,train,F4,0.00051594298741706,28.03290084374719,-0.1505642682313919,10.891800001743436,10.889989787159008,2.573761989685819
48,train,F8,0.0002609812832743599,26.972076714877964,0.8215658664703369,21.786032781171798,21.962761437124108,1.238044438186475
48,train,AF4,0.010739196324157154,19.262442184804662,-0.2681232690811157,14.03798275051117,14.056826450808831,1.3721659676568025
